"Wavelength, µm","n","k"
0.4,1.50029,3.82e-7
0.41,1.49875,2.39e-7
0.42,1.49752,2.24e-7
0.43,1.4964,2.18e-7
0.44,1.4956,2.05e-7
0.45,1.49443,2.24e-7
0.46,1.49358,2.13e-7
0.47,1.49249,1.97e-7
0.48,1.49161,2.23e-7
0.49,1.49089,2.14e-7
0.5,1.49021,2.24e-7
0.51,1.48946,2.16e-7
0.52,1.48876,2.17e-7
0.53,1.48788,2.18e-7
0.54,1.48759,2.21e-7
0.55,1.48703,2.28e-7
0.56,1.48639,2.25e-7
0.57,1.48587,2.33e-7
0.58,1.48539,2.37e-7
0.59,1.48503,2.29e-7
0.6,1.48432,2.76e-7
0.61,1.48417,2.65e-7
0.62,1.48345,2.56e-7
0.63,1.48306,2.6e-7
0.64,1.48291,2.67e-7
0.65,1.48223,2.56e-7
0.66,1.4823,2.48e-7
0.67,1.48203,2.32e-7
0.68,1.48196,2.3e-7
0.69,1.4816,2.44e-7
0.7,1.48098,2.63e-7
0.71,1.48097,2.57e-7
0.72,1.48072,2.95e-7
0.73,1.48033,2.91e-7
0.74,1.47958,2.78e-7
0.75,1.47977,2.67e-7
0.76,1.47934,2.54e-7
0.77,1.47913,2.13e-7
0.78,1.47847,2.83e-7
0.79,1.4786,2.76e-7
0.8,1.47824,2.68e-7
0.81,1.478,2.56e-7
0.82,1.4786,2.78e-7
0.83,1.47868,3.08e-7
0.84,1.47781,2.48e-7
0.85,1.4785,2.72e-7
0.86,1.47831,3.12e-7
0.87,1.47817,3.78e-7
0.88,1.47791,4.35e-7
0.89,1.4779,5.54e-7
0.9,1.47769,9.13e-7
0.91,1.47765,3.98e-7
0.92,1.47744,9.99e-7
0.93,1.47741,8.66e-7
0.94,1.47716,7.05e-7
0.95,1.47711,7.65e-7
0.96,1.47703,5.37e-7
0.97,1.47693,6.85e-7
0.98,1.47671,0.00000102
0.99,1.47663,7.44e-7
1,1.47668,7.26e-7
1.01,1.47661,0.00000105
1.02,1.47666,0.00000106
1.03,1.4748,0.00000152
1.04,1.47489,0.00000156
1.05,1.47487,0.00000132
1.06,1.47483,0.00000123
1.07,1.47465,0.00000128
1.08,1.47471,0.00000128
1.09,1.4746,0.0000012
1.1,1.47462,0.00000145
1.11,1.47469,0.00000184
1.12,1.47487,0.00000238
1.13,1.47473,0.00000363
1.14,1.47395,0.00000484
1.15,1.47355,0.00000604
1.16,1.47411,0.00000799
1.17,1.47403,0.00000959
1.18,1.47423,0.00000931
1.19,1.47407,0.00000656
1.2,1.47387,0.00000367
1.21,1.47304,0.00000334
1.22,1.47307,0.00000249
1.23,1.47284,0.00000226
1.24,1.47324,0.00000207
1.25,1.47321,0.00000191
1.26,1.47335,0.00000164
1.27,1.47376,0.00000188
1.28,1.47282,0.00000185
1.29,1.47294,0.00000183
1.3,1.47227,0.00000187
1.31,1.47283,0.00000197
1.32,1.47268,0.00000226
1.33,1.47237,0.0000032
1.34,1.47264,0.00000724
1.35,1.47253,0.0000102
1.36,1.47257,0.0000112
1.37,1.47267,0.0000124
1.38,1.47211,0.0000133
1.39,1.47205,0.0000134
1.4,1.47216,0.0000119
1.41,1.47212,0.0000114
1.42,1.47238,0.000012
1.43,1.47199,0.0000115
1.44,1.47177,0.0000101
1.45,1.47218,0.0000078
1.46,1.47171,0.00000617
1.47,1.47183,0.00000546
1.48,1.47228,0.00000365
1.49,1.4718,0.0000046
1.5,1.47161,0.00000404
1.51,1.47123,0.00000375
1.52,1.47153,0.00000349
1.53,1.47123,0.00000349
1.54,1.47142,0.00000342
1.55,1.47173,0.00000365
1.56,1.47117,0.00000395
1.57,1.47119,0.00000436
1.58,1.4716,0.00000475
1.59,1.47086,0.00000526
1.6,1.47101,0.00000593
1.61,1.471,0.00000699
1.62,1.47054,0.00000907
1.63,1.47121,0.0000104
1.64,1.47092,0.0000124
1.65,1.47106,0.0000193
1.66,1.47091,0.0000428
1.67,1.47053,0.0000648
1.68,1.4708,0.0000891
1.69,1.47122,0.0000659
1.7,1.47077,0.0000689
1.71,1.47061,0.0000655
1.72,1.47022,0.0000668
1.73,1.47045,0.00006
1.74,1.47037,0.0000518
1.75,1.47063,0.0000429
1.76,1.46976,0.000035
1.77,1.46997,0.0000323
1.78,1.46999,0.000035
1.79,1.46979,0.0000325
1.8,1.47008,0.0000271
1.81,1.47058,0.0000229
1.82,1.47041,0.0000212
1.83,1.47017,0.000021
1.84,1.46921,0.0000214
1.85,1.46995,0.0000233
1.86,1.4693,0.0000252
1.87,1.46961,0.0000238
1.88,1.4694,0.0000258
1.89,1.46962,0.0000365
1.9,1.46936,0.0000602
1.91,1.46988,0.0000683
1.92,1.46957,0.0000459
1.93,1.4695,0.0000343
1.94,1.46925,0.0000362
1.95,1.46861,0.0000392
1.96,1.46898,0.0000306
1.97,1.46925,0.0000245
1.98,1.46912,0.0000227
1.99,1.46904,0.0000226
2,1.46937,0.0000231
2.0097,1.45993,0.000022
2.019,1.45914,0.0000225
2.0285,1.46173,0.0000231
2.0381,1.46239,0.0000239
2.0478,1.46089,0.0000247
2.0575,1.46005,0.0000259
2.0673,1.46034,0.0000266
2.0773,1.46085,0.0000284
2.0873,1.46377,0.0000332
2.0975,1.46681,0.0000341
2.1077,1.46716,0.000041
2.118,1.46714,0.0000494
2.1285,1.46843,0.000051
2.139,1.46818,0.0000549
2.1496,1.46639,0.0000544
2.1568,1.46565,0.0000522
2.1676,1.46412,0.0000533
2.1785,1.46385,0.0000542
2.1896,1.46642,0.0000612
2.197,1.46709,0.0000739
2.2082,1.46738,0.0000933
2.2196,1.46875,0.000796
2.2272,1.46883,0.000584
2.2387,1.46814,0.0000936
2.2465,1.46723,0.00009
2.2582,1.46572,0.000464
2.2661,1.46655,0.000228
2.2781,1.4677,0.000442
2.2861,1.46723,0.00121
2.2983,1.46619,0.00129
2.3065,1.46614,0.00111
2.3188,1.46679,0.00184
2.3272,1.46796,0.00175
2.3398,1.46798,0.000638
2.3482,1.46708,0.000677
2.3568,1.46696,0.00137
2.3697,1.46732,0.00237
2.3784,1.46808,0.00137
2.3872,1.46974,0.00073
2.396,1.47063,0.000714
2.4093,1.46856,0.00195
2.4183,1.468,0.00238
2.4274,1.46839,0.00202
2.4365,1.46858,0.0013
2.4457,1.46679,0.0014
2.4596,1.4662,0.00216
2.469,1.46755,0.00202
2.4784,1.46864,0.00168
2.488,1.46882,0.00161
2.4975,1.46695,0.00183
2.5072,1.46583,0.00232
2.5169,1.4658,0.00329
2.5268,1.46612,0.00275
2.5366,1.46805,0.000888
2.5466,1.46942,0.00104
2.5567,1.46876,0.00172
2.5668,1.46766,0.00109
2.577,1.46683,0.000807
2.5873,1.46615,0.000891
2.5976,1.46581,0.000526
2.6081,1.46627,0.00061
2.6186,1.46686,0.000834
2.6293,1.46644,0.00161
2.64,1.46636,0.00212
2.6454,1.46679,0.00209
2.6562,1.46669,0.00157
2.6671,1.46483,0.00074
2.6782,1.46383,0.000575
2.6893,1.4644,0.00198
2.6949,1.4646,0.00221
2.7061,1.46539,0.00234
2.7175,1.46683,0.00296
2.7289,1.46697,0.00254
2.7347,1.46668,0.00176
2.7462,1.46552,0.00121
2.7579,1.46574,0.000883
2.7697,1.46745,0.000278
2.7756,1.46763,0.000202
2.7876,1.46672,0.0000121
2.7996,1.46537,0.0000334
2.8057,1.46494,0.000817
2.8179,1.46451,0.000995
2.824,1.46484,0.00127
2.8364,1.46659,0.00144
2.8489,1.46689,0.00109
2.8551,1.4665,0.000516
2.8678,1.46563,0.000254
2.8741,1.465,0.000584
2.8869,1.46319,0.00152
2.8998,1.46203,0.00231
2.9063,1.46195,0.00271
2.9194,1.46301,0.00318
2.926,1.46388,0.00284
2.9393,1.46534,0.00165
2.946,1.46554,0.00148
2.9594,1.46605,0.00237
2.9662,1.46565,0.0027
2.9798,1.46421,0.00122
2.9867,1.46338,0.000775
2.9936,1.46244,0.00108
3.0075,1.4611,0.0014
3.0145,1.46121,0.00108
3.0286,1.4615,0.000557
3.0357,1.4621,0.000325
3.0499,1.46219,0.000328
3.0571,1.46222,0.00123
3.0644,1.46249,0.00206
3.0789,1.46294,0.00151
3.0863,1.46312,0.000663
3.0936,1.46318,0.000153
3.1085,1.46273,0.000347
3.1159,1.46233,0.000684
3.1234,1.46212,0.000856
3.1386,1.46233,0.00108
3.1462,1.46284,0.00129
3.1538,1.46236,0.00154
3.1693,1.45969,0.00144
3.177,1.45917,0.00138
3.1848,1.45934,0.0014
3.1927,1.45938,0.00155
3.2085,1.45857,0.00108
3.2164,1.45791,0.000658
3.2244,1.45699,0.000749
3.2325,1.45603,0.001
3.2487,1.45454,0.00188
3.2569,1.45332,0.00258
3.2651,1.45179,0.00353
3.2733,1.45018,0.00448
3.2899,1.44773,0.0073
3.2983,1.44665,0.00977
3.3067,1.44544,0.0133
3.3152,1.44523,0.0178
3.3237,1.4472,0.0227
3.3322,1.45162,0.0261
3.3494,1.46059,0.0245
3.3581,1.4609,0.0215
3.3668,1.4587,0.0217
3.3756,1.45835,0.0267
3.3844,1.46348,0.0331
3.3933,1.47214,0.0343
3.4022,1.47839,0.0297
3.4111,1.4804,0.0242
3.4292,1.48225,0.0174
3.4383,1.48271,0.0145
3.4474,1.48174,0.0119
3.4566,1.4803,0.0093
3.4658,1.47951,0.00707
3.4751,1.47891,0.00593
3.4845,1.47831,0.00532
3.4939,1.47727,0.00472
3.5033,1.47591,0.00483
3.5128,1.47502,0.00533
3.5224,1.47511,0.00523
3.532,1.47544,0.00435
3.5416,1.47559,0.00308
3.5513,1.47546,0.0022
3.5611,1.47457,0.00203
3.5709,1.47313,0.0021
3.5807,1.47174,0.00187
3.5907,1.47069,0.00139
3.6006,1.47052,0.00144
3.6107,1.47086,0.00229
3.6207,1.4705,0.00257
3.6309,1.46962,0.00165
3.6411,1.46913,0.000709
3.6513,1.4689,0.000612
3.6617,1.46868,0.000829
3.672,1.46835,0.000632
3.6825,1.46822,0.000751
3.693,1.46821,0.00102
3.7035,1.46816,0.000892
3.7141,1.468,0.000481
3.7248,1.46754,0.000151
3.7355,1.46731,0.0000701
3.7463,1.46714,0.00017
3.7572,1.46713,0.000466
3.7681,1.46691,0.000652
3.7791,1.46626,0.00105
3.7901,1.46571,0.00129
3.8013,1.46532,0.00115
3.8124,1.46539,0.00118
3.8237,1.46552,0.00146
3.835,1.46562,0.00126
3.8464,1.46572,0.00101
3.8578,1.46539,0.00109
3.8693,1.46529,0.00117
3.8809,1.4654,0.000925
3.8926,1.46555,0.000795
3.9043,1.46527,0.000838
3.9161,1.46457,0.000954
3.928,1.46435,0.000953
3.9399,1.46441,0.000835
3.9519,1.46401,0.000679
3.964,1.46296,0.000282
3.9762,1.46218,0.000235
3.9884,1.46218,0.000244
4.0007,1.46272,0.000679
4.0131,1.46294,0.00105
4.0255,1.46271,0.00114
4.0381,1.46285,0.00116
4.0507,1.46299,0.00107
4.0634,1.46306,0.00126
4.0762,1.46282,0.0013
4.089,1.4624,0.000793
4.102,1.46244,0.000629
4.115,1.46238,0.00131
4.1281,1.46223,0.00167
4.1413,1.46232,0.00136
4.1546,1.46264,0.00126
4.1679,1.46232,0.00128
4.1814,1.46169,0.00104
4.1949,1.46154,0.000868
4.2085,1.46154,0.00099
4.2222,1.46046,0.00105
4.236,1.46069,0.00174
4.2499,1.46084,0.00245
4.2639,1.4596,0.00255
4.278,1.45862,0.00289
4.2921,1.45681,0.00101
4.3064,1.45681,0.000334
4.3208,1.45864,0.000303
4.3352,1.45904,0.000543
4.3498,1.4584,0.000829
4.3644,1.45788,0.00104
4.3791,1.45761,0.000958
4.394,1.45777,0.000644
4.4089,1.4581,0.000418
4.424,1.45807,0.000625
4.4391,1.45714,0.000886
4.4544,1.45649,0.00106
4.4697,1.45693,0.00127
4.4852,1.45801,0.000945
4.5008,1.458,0.000745
4.5165,1.45696,0.000906
4.5323,1.45653,0.00129
4.5482,1.45631,0.00177
4.5642,1.45598,0.00174
4.5803,1.45578,0.00126
4.5965,1.45499,0.000815
4.6129,1.45416,0.000708
4.6294,1.45423,0.0012
4.646,1.45443,0.00162
4.6627,1.45416,0.00181
4.6795,1.45372,0.00201
4.6965,1.45299,0.00244
4.7136,1.45226,0.00246
4.7308,1.45226,0.00194
4.7481,1.45246,0.00141
4.7655,1.4517,0.00153
4.7831,1.45048,0.00185
4.8008,1.4499,0.00189
4.8187,1.44983,0.00224
4.8367,1.44946,0.00259
4.8548,1.44919,0.00257
4.873,1.44969,0.0027
4.8914,1.44959,0.00265
4.91,1.44909,0.00221
4.9286,1.44907,0.00167
4.9474,1.44852,0.00139
4.9664,1.44745,0.00136
4.9855,1.44646,0.0015
5.0047,1.44589,0.00227
5.0241,1.44547,0.00321
5.0437,1.44504,0.00357
5.0634,1.44421,0.00365
5.0832,1.4432,0.00387
5.1033,1.44302,0.00413
5.1234,1.44303,0.00384
5.1438,1.44191,0.003
5.1643,1.44083,0.00247
5.1849,1.43993,0.00236
5.2057,1.43833,0.00207
5.2267,1.43751,0.002
5.2479,1.43712,0.00253
5.2692,1.43607,0.0026
5.2907,1.43417,0.00207
5.3124,1.43151,0.00197
5.3343,1.4297,0.00206
5.3563,1.42899,0.00193
5.3785,1.42757,0.00197
5.4009,1.42504,0.00216
5.4235,1.42167,0.00275
5.4463,1.41887,0.00324
5.4693,1.41613,0.00359
5.4925,1.41305,0.00412
5.5159,1.40928,0.00486
5.5394,1.40449,0.00526
5.5632,1.39876,0.00545
5.5872,1.39099,0.0058
5.6114,1.38091,0.00647
5.6358,1.36577,0.00768
5.6604,1.34165,0.0115
5.6852,1.30456,0.0228
5.7103,1.25009,0.0866
5.7355,1.23791,0.226
5.761,1.35093,0.351
5.7867,1.53866,0.361
5.8127,1.65974,0.239
5.8389,1.65328,0.0948
5.8653,1.59795,0.0343
5.8919,1.55603,0.0198
5.9188,1.53346,0.0155
5.946,1.51987,0.013
5.9734,1.50926,0.00972
6.0011,1.50118,0.00838
6.029,1.49435,0.00827
6.0571,1.48764,0.00751
6.0856,1.48253,0.00694
6.1143,1.47884,0.00742
6.1433,1.47491,0.00667
6.1725,1.47097,0.00532
6.202,1.46765,0.00453
6.2319,1.46643,0.00401
6.262,1.46464,0.00408
6.2924,1.46087,0.00527
6.3231,1.45796,0.00606
6.3541,1.45577,0.00558
6.3854,1.45217,0.00537
6.417,1.44854,0.00648
6.4489,1.44671,0.00629
6.4811,1.4435,0.00542
6.5137,1.43762,0.00476
6.5466,1.4331,0.00505
6.5798,1.42853,0.00617
6.6134,1.42137,0.00768
6.6473,1.40897,0.013
6.6816,1.39643,0.0301
6.7162,1.40042,0.0529
6.7512,1.41623,0.0633
6.7865,1.42566,0.06
6.8223,1.42389,0.0622
6.8583,1.42504,0.0767
6.8948,1.44056,0.0895
6.9317,1.46227,0.0922
6.969,1.48677,0.081
7.0066,1.50018,0.0516
7.0447,1.48902,0.0248
7.0832,1.46778,0.0176
7.1221,1.45338,0.0218
7.1615,1.44778,0.0312
7.2013,1.45226,0.0384
7.2415,1.45885,0.0347
7.2822,1.45727,0.0269
7.3233,1.4518,0.0231
7.3649,1.44754,0.0208
7.407,1.44133,0.0192
7.4496,1.43513,0.0187
7.4926,1.42887,0.0185
7.5362,1.42116,0.0183
7.5803,1.41302,0.0195
7.6249,1.40311,0.0219
7.67,1.39055,0.0257
7.7156,1.37736,0.0329
7.7618,1.36279,0.0505
7.8086,1.356,0.0837
7.8559,1.37251,0.113
7.9038,1.39429,0.116
7.9523,1.39654,0.115
8.0014,1.402,0.136
8.0511,1.43148,0.149
8.1014,1.46033,0.129
8.1524,1.45648,0.0919
8.204,1.42126,0.0716
8.2562,1.37501,0.0884
8.3091,1.3525,0.149
8.3628,1.38616,0.209
8.4171,1.43783,0.216
8.4721,1.45665,0.198
8.5278,1.45144,0.197
8.5843,1.44384,0.225
8.6415,1.47054,0.29
8.6995,1.57107,0.329
8.7583,1.67665,0.272
8.8179,1.707,0.175
8.8783,1.68709,0.111
8.9395,1.65965,0.0751
9.0016,1.63459,0.0517
9.0645,1.61331,0.0396
9.1284,1.59709,0.0333
9.1931,1.58466,0.0309
9.2588,1.5741,0.0318
9.3254,1.56724,0.0363
9.393,1.56906,0.0383
9.4615,1.57283,0.0286
9.5311,1.56655,0.0147
9.6017,1.55438,0.00769
9.6733,1.54294,0.00546
9.7461,1.5326,0.00525
9.8199,1.52114,0.00758
9.8949,1.50686,0.0143
9.971,1.49485,0.0314
10.048,1.49934,0.0548
10.127,1.51852,0.0629
10.207,1.533,0.0566
10.288,1.53879,0.0532
10.37,1.54718,0.0509
10.453,1.55249,0.0409
10.538,1.54965,0.0304
10.625,1.54551,0.0241
10.713,1.53902,0.0196
10.802,1.53022,0.0187
10.893,1.52592,0.0233
10.985,1.52978,0.0262
11.079,1.5326,0.021
11.174,1.52964,0.0146
11.272,1.52531,0.0127
11.37,1.52193,0.0129
11.471,1.51569,0.0131
11.573,1.50969,0.0156
11.678,1.50613,0.0223
11.784,1.50876,0.0319
11.892,1.52141,0.0351
12.002,1.52918,0.0264
12.114,1.52647,0.0201
12.229,1.52535,0.0194
12.345,1.52615,0.0184
12.464,1.5235,0.0139
12.585,1.51869,0.0082
12.708,1.51532,0.00991
12.834,1.51185,0.0132
12.962,1.506,0.0151
13.093,1.49932,0.0273
13.227,1.50733,0.0448
13.363,1.53088,0.0427
13.502,1.53954,0.0247
13.645,1.53447,0.0124
13.79,1.52827,0.00591
13.938,1.52298,0.00135
14.089,1.51655,0.00128
14.244,1.51365,0.000819
14.403,1.51198,0.00549
14.564,1.51279,0.0064
14.73,1.51337,0.00683
14.899,1.50928,0.0105
15.072,1.50338,0.00796
15.25,1.50371,0.00388
15.431,1.50493,0.00438
15.617,1.50679,0.00701
15.808,1.50412,0.00497
16.003,1.50092,0.00107
16.203,1.5014,0.000334
16.408,1.49947,0.000373
16.618,1.49804,0.000899
16.834,1.49835,0.00109
17.056,1.49799,0.000986
17.283,1.49701,0.00437
17.517,1.49557,0.00643
17.757,1.4906,0.00665
18.003,1.4889,0.00471
18.257,1.49211,0.00584
18.518,1.49241,0.00507
18.786,1.48941,0.00718
19.062,1.48351,0.0101
19.347,1.48194,0.0115
19.64,1.48424,0.0117
19.942,1.48253,0.0152